File: UV-Vis Nanotubes_04172017/New 6DF.txt
"New 6DF.spc - RawData"
"Wavelength nm.","Abs."
450.00,0.435
452.50,0.437
455.00,0.439
457.50,0.442
460.00,0.446
462.50,0.450
465.00,0.453
467.50,0.454
470.00,0.453
472.50,0.449
475.00,0.442
477.50,0.435
480.00,0.426
482.50,0.417
485.00,0.410
487.50,0.403
490.00,0.399
492.50,0.396
495.00,0.394
497.50,0.395
500.00,0.397
502.50,0.399
505.00,0.403
507.50,0.406
510.00,0.409
512.50,0.411
515.00,0.412
517.50,0.412
520.00,0.411
522.50,0.409
525.00,0.406
527.50,0.404
530.00,0.401
532.50,0.398
535.00,0.395
537.50,0.393
540.00,0.392
542.50,0.392
545.00,0.393
547.50,0.395
550.00,0.399
552.50,0.404
555.00,0.411
557.50,0.420
560.00,0.431
562.50,0.444
565.00,0.458
567.50,0.471
570.00,0.483
572.50,0.491
575.00,0.497
577.50,0.502
580.00,0.505
582.50,0.507
585.00,0.507
587.50,0.504
590.00,0.499
592.50,0.492
595.00,0.484
597.50,0.474
600.00,0.464
602.50,0.453
605.00,0.442
607.50,0.431
610.00,0.420
612.50,0.409
615.00,0.399
617.50,0.390
620.00,0.382
622.50,0.375
625.00,0.369
627.50,0.364
630.00,0.360
632.50,0.358
635.00,0.356
637.50,0.356
640.00,0.357
642.50,0.358
645.00,0.360
647.50,0.363
650.00,0.365
652.50,0.368
655.00,0.371
657.50,0.374
660.00,0.376
662.50,0.378
665.00,0.379
667.50,0.377
670.00,0.374
672.50,0.370
675.00,0.366
677.50,0.361
680.00,0.355
682.50,0.350
685.00,0.345
687.50,0.340
690.00,0.335
692.50,0.329
695.00,0.324
697.50,0.318
700.00,0.313
702.50,0.307
705.00,0.303
707.50,0.299
710.00,0.295
712.50,0.292
715.00,0.289
717.50,0.287
720.00,0.286
722.50,0.284
725.00,0.283
727.50,0.282
730.00,0.282
732.50,0.281
735.00,0.280
737.50,0.279
740.00,0.279
742.50,0.278
745.00,0.277
747.50,0.276
750.00,0.275
752.50,0.273
755.00,0.272
757.50,0.271
760.00,0.270
762.50,0.269
765.00,0.268
767.50,0.267
770.00,0.265
772.50,0.264
775.00,0.263
777.50,0.262
780.00,0.261
782.50,0.260
785.00,0.260
787.50,0.259
790.00,0.259
792.50,0.258
795.00,0.258
797.50,0.258
800.00,0.259
802.50,0.259
805.00,0.260
807.50,0.260
810.00,0.261
812.50,0.262
815.00,0.264
817.50,0.265
820.00,0.267
822.50,0.269
825.00,0.271
827.50,0.273
830.00,0.275
832.50,0.278
835.00,0.281
837.50,0.283
840.00,0.285
842.50,0.288
845.00,0.291
847.50,0.293
850.00,0.296
852.50,0.299
855.00,0.302
857.50,0.306
860.00,0.310
862.50,0.314
865.00,0.319
867.50,0.324
870.00,0.329
872.50,0.334
875.00,0.338
877.50,0.340
880.00,0.340
882.50,0.338
885.00,0.336
887.50,0.335
890.00,0.334
892.50,0.337
895.00,0.339
897.50,0.339
900.00,0.339
902.50,0.338
905.00,0.342
907.50,0.342
910.00,0.344
912.50,0.345
915.00,0.343
917.50,0.338
920.00,0.335
922.50,0.332
925.00,0.327
927.50,0.325
930.00,0.324
932.50,0.322
935.00,0.329
937.50,0.329
940.00,0.325
942.50,0.320
945.00,0.322
947.50,0.319
950.00,0.320
952.50,0.315
955.00,0.315
957.50,0.316
960.00,0.309
962.50,0.316
965.00,0.316
967.50,0.322
970.00,0.321
972.50,0.332
975.00,0.340
977.50,0.352
980.00,0.348
982.50,0.360
985.00,0.361
987.50,0.352
990.00,0.352
992.50,0.353
995.00,0.349
997.50,0.350
1000.00,0.347
1002.50,0.341
1005.00,0.345
1007.50,0.338
1010.00,0.332
1012.50,0.328
1015.00,0.325
1017.50,0.323
1020.00,0.325
1022.50,0.305
1025.00,0.312
1027.50,0.309
1030.00,0.308
1032.50,0.300
1035.00,0.304
1037.50,0.292
1040.00,0.297
1042.50,0.292
1045.00,0.287
1047.50,0.294
1050.00,0.287
1052.50,0.290
1055.00,0.280
1057.50,0.281
1060.00,0.276
1062.50,0.280
1065.00,0.277
1067.50,0.279
1070.00,0.301
1072.50,0.316
1075.00,0.270
1077.50,0.273
1080.00,0.268
1082.50,0.266
1085.00,0.265
1087.50,0.272
1090.00,0.271
1092.50,0.264
1095.00,0.268
1097.50,0.267
1100.00,0.268