File: UV-Vis Nanotubes_04172017/New 1DF.txt
"New 1DF.spc - RawData"
"Wavelength nm.","Abs."
450.00,2.606
452.50,2.614
455.00,2.628
457.50,2.650
460.00,2.669
462.50,2.691
465.00,2.713
467.50,2.717
470.00,2.708
472.50,2.685
475.00,2.652
477.50,2.600
480.00,2.544
482.50,2.495
485.00,2.447
487.50,2.408
490.00,2.381
492.50,2.363
495.00,2.354
497.50,2.355
500.00,2.368
502.50,2.387
505.00,2.407
507.50,2.428
510.00,2.444
512.50,2.452
515.00,2.458
517.50,2.458
520.00,2.454
522.50,2.443
525.00,2.427
527.50,2.410
530.00,2.391
532.50,2.377
535.00,2.362
537.50,2.350
540.00,2.340
542.50,2.339
545.00,2.346
547.50,2.361
550.00,2.385
552.50,2.414
555.00,2.456
557.50,2.507
560.00,2.578
562.50,2.654
565.00,2.737
567.50,2.818
570.00,2.881
572.50,2.934
575.00,2.983
577.50,3.009
580.00,3.023
582.50,3.045
585.00,3.045
587.50,3.023
590.00,3.002
592.50,2.958
595.00,2.894
597.50,2.839
600.00,2.775
602.50,2.708
605.00,2.643
607.50,2.573
610.00,2.510
612.50,2.440
615.00,2.381
617.50,2.328
620.00,2.277
622.50,2.234
625.00,2.196
627.50,2.165
630.00,2.141
632.50,2.125
635.00,2.116
637.50,2.111
640.00,2.116
642.50,2.121
645.00,2.133
647.50,2.148
650.00,2.164
652.50,2.181
655.00,2.200
657.50,2.218
660.00,2.234
662.50,2.246
665.00,2.249
667.50,2.239
670.00,2.222
672.50,2.199
675.00,2.171
677.50,2.140
680.00,2.108
682.50,2.078
685.00,2.048
687.50,2.016
690.00,1.984
692.50,1.950
695.00,1.917
697.50,1.882
700.00,1.848
702.50,1.816
705.00,1.788
707.50,1.763
710.00,1.741
712.50,1.722
715.00,1.706
717.50,1.693
720.00,1.682
722.50,1.674
725.00,1.666
727.50,1.661
730.00,1.656
732.50,1.652
735.00,1.648
737.50,1.643
740.00,1.638
742.50,1.633
745.00,1.627
747.50,1.621
750.00,1.615
752.50,1.608
755.00,1.602
757.50,1.595
760.00,1.588
762.50,1.582
765.00,1.574
767.50,1.567
770.00,1.560
772.50,1.552
775.00,1.545
777.50,1.538
780.00,1.532
782.50,1.527
785.00,1.523
787.50,1.521
790.00,1.518
792.50,1.517
795.00,1.517
797.50,1.517
800.00,1.518
802.50,1.521
805.00,1.524
807.50,1.527
810.00,1.532
812.50,1.539
815.00,1.547
817.50,1.556
820.00,1.567
822.50,1.579
825.00,1.591
827.50,1.606
830.00,1.620
832.50,1.636
835.00,1.652
837.50,1.666
840.00,1.682
842.50,1.697
845.00,1.713
847.50,1.730
850.00,1.747
852.50,1.768
855.00,1.786
857.50,1.809
860.00,1.834
862.50,1.862
865.00,1.892
867.50,1.923
870.00,1.952
872.50,1.978
875.00,1.994
877.50,1.999
880.00,1.991
882.50,1.982
885.00,1.969
887.50,1.959
890.00,1.962
892.50,1.979
895.00,1.985
897.50,1.992
900.00,1.989
902.50,1.985
905.00,2.002
907.50,1.995
910.00,2.005
912.50,1.999
915.00,1.993
917.50,1.974
920.00,1.947
922.50,1.930
925.00,1.916
927.50,1.899
930.00,1.897
932.50,1.882
935.00,1.920
937.50,1.915
940.00,1.882
942.50,1.853
945.00,1.831
947.50,1.823
950.00,1.810
952.50,1.790
955.00,1.772
957.50,1.753
960.00,1.766
962.50,1.767
965.00,1.760
967.50,1.769
970.00,1.790
972.50,1.777
975.00,1.819
977.50,1.827
980.00,1.855
982.50,1.830
985.00,1.855
987.50,1.845
990.00,1.844
992.50,1.830
995.00,1.805
997.50,1.804
1000.00,1.823
1002.50,1.803
1005.00,1.835
1007.50,1.763
1010.00,1.769
1012.50,1.785
1015.00,1.803
1017.50,1.801
1020.00,1.808
1022.50,1.778
1025.00,1.756
1027.50,1.756
1030.00,1.794
1032.50,1.732
1035.00,1.767
1037.50,1.728
1040.00,1.725
1042.50,1.762
1045.00,1.747
1047.50,1.794
1050.00,1.732
1052.50,1.707
1055.00,1.699
1057.50,1.683
1060.00,1.670
1062.50,1.683
1065.00,1.705
1067.50,1.826
1070.00,5.000
1072.50,5.000
1075.00,1.674
1077.50,1.615
1080.00,1.644
1082.50,1.617
1085.00,1.618
1087.50,1.660
1090.00,1.618
1092.50,1.615
1095.00,1.588
1097.50,1.602
1100.00,1.617