File: UV-Vis Nanotubes_04172017/New 96DF.txt
"New 96DF.spc - RawData"
"Wavelength nm.","Abs."
450.00,0.028
452.50,0.028
455.00,0.028
457.50,0.029
460.00,0.029
462.50,0.029
465.00,0.029
467.50,0.029
470.00,0.029
472.50,0.029
475.00,0.028
477.50,0.028
480.00,0.027
482.50,0.027
485.00,0.026
487.50,0.026
490.00,0.026
492.50,0.025
495.00,0.025
497.50,0.025
500.00,0.025
502.50,0.026
505.00,0.026
507.50,0.026
510.00,0.026
512.50,0.026
515.00,0.026
517.50,0.026
520.00,0.026
522.50,0.026
525.00,0.026
527.50,0.026
530.00,0.025
532.50,0.025
535.00,0.025
537.50,0.025
540.00,0.025
542.50,0.025
545.00,0.025
547.50,0.025
550.00,0.025
552.50,0.026
555.00,0.026
557.50,0.027
560.00,0.027
562.50,0.028
565.00,0.029
567.50,0.030
570.00,0.031
572.50,0.031
575.00,0.032
577.50,0.032
580.00,0.032
582.50,0.033
585.00,0.033
587.50,0.032
590.00,0.032
592.50,0.032
595.00,0.031
597.50,0.031
600.00,0.030
602.50,0.029
605.00,0.029
607.50,0.028
610.00,0.027
612.50,0.027
615.00,0.026
617.50,0.025
620.00,0.025
622.50,0.025
625.00,0.024
627.50,0.024
630.00,0.024
632.50,0.024
635.00,0.024
637.50,0.024
640.00,0.024
642.50,0.024
645.00,0.024
647.50,0.024
650.00,0.025
652.50,0.025
655.00,0.025
657.50,0.025
660.00,0.025
662.50,0.026
665.00,0.026
667.50,0.026
670.00,0.026
672.50,0.025
675.00,0.025
677.50,0.025
680.00,0.024
682.50,0.024
685.00,0.024
687.50,0.024
690.00,0.023
692.50,0.023
695.00,0.023
697.50,0.022
700.00,0.022
702.50,0.022
705.00,0.021
707.50,0.021
710.00,0.021
712.50,0.021
715.00,0.020
717.50,0.020
720.00,0.020
722.50,0.020
725.00,0.020
727.50,0.020
730.00,0.020
732.50,0.020
735.00,0.020
737.50,0.020
740.00,0.020
742.50,0.020
745.00,0.020
747.50,0.020
750.00,0.020
752.50,0.020
755.00,0.020
757.50,0.020
760.00,0.020
762.50,0.020
765.00,0.020
767.50,0.020
770.00,0.020
772.50,0.020
775.00,0.020
777.50,0.020
780.00,0.020
782.50,0.020
785.00,0.020
787.50,0.020
790.00,0.020
792.50,0.020
795.00,0.020
797.50,0.020
800.00,0.020
802.50,0.021
805.00,0.021
807.50,0.021
810.00,0.021
812.50,0.021
815.00,0.021
817.50,0.021
820.00,0.021
822.50,0.021
825.00,0.021
827.50,0.022
830.00,0.022
832.50,0.022
835.00,0.022
837.50,0.022
840.00,0.022
842.50,0.022
845.00,0.022
847.50,0.022
850.00,0.022
852.50,0.022
855.00,0.022
857.50,0.023
860.00,0.023
862.50,0.023
865.00,0.024
867.50,0.024
870.00,0.024
872.50,0.025
875.00,0.025
877.50,0.025
880.00,0.025
882.50,0.024
885.00,0.024
887.50,0.024
890.00,0.024
892.50,0.025
895.00,0.025
897.50,0.024
900.00,0.023
902.50,0.022
905.00,0.025
907.50,0.023
910.00,0.024
912.50,0.024
915.00,0.024
917.50,0.022
920.00,0.022
922.50,0.022
925.00,0.020
927.50,0.020
930.00,0.022
932.50,0.020
935.00,0.019
937.50,0.024
940.00,0.022
942.50,0.020
945.00,0.021
947.50,0.022
950.00,0.023
952.50,0.019
955.00,0.021
957.50,0.023
960.00,0.018
962.50,0.026
965.00,0.021
967.50,0.023
970.00,0.022
972.50,0.022
975.00,0.022
977.50,0.028
980.00,0.023
982.50,0.033
985.00,0.031
987.50,0.021
990.00,0.025
992.50,0.032
995.00,0.029
997.50,0.029
1000.00,0.026
1002.50,0.025
1005.00,0.023
1007.50,0.024
1010.00,0.019
1012.50,0.018
1015.00,0.027
1017.50,0.019
1020.00,0.020
1022.50,0.009
1025.00,0.021
1027.50,0.017
1030.00,0.020
1032.50,0.016
1035.00,0.020
1037.50,0.015
1040.00,0.020
1042.50,0.021
1045.00,0.013
1047.50,0.022
1050.00,0.020
1052.50,0.022
1055.00,0.013
1057.50,0.016
1060.00,0.016
1062.50,0.015
1065.00,0.025
1067.50,0.017
1070.00,0.026
1072.50,0.024
1075.00,0.011
1077.50,0.010
1080.00,0.015
1082.50,0.015
1085.00,0.012
1087.50,0.018
1090.00,0.018
1092.50,0.010
1095.00,0.015
1097.50,0.014
1100.00,0.019