File: UV-Vis Nanotubes_04172017/New 1.5DF.txt
"New 1.5DF.spc - RawData"
"Wavelength nm.","Abs."
450.00,1.707
452.50,1.711
455.00,1.720
457.50,1.734
460.00,1.749
462.50,1.763
465.00,1.775
467.50,1.780
470.00,1.774
472.50,1.759
475.00,1.736
477.50,1.705
480.00,1.670
482.50,1.636
485.00,1.606
487.50,1.580
490.00,1.562
492.50,1.550
495.00,1.545
497.50,1.547
500.00,1.554
502.50,1.566
505.00,1.580
507.50,1.593
510.00,1.603
512.50,1.610
515.00,1.613
517.50,1.613
520.00,1.610
522.50,1.603
525.00,1.594
527.50,1.583
530.00,1.572
532.50,1.561
535.00,1.551
537.50,1.543
540.00,1.539
542.50,1.538
545.00,1.542
547.50,1.551
550.00,1.567
552.50,1.587
555.00,1.614
557.50,1.649
560.00,1.691
562.50,1.742
565.00,1.794
567.50,1.844
570.00,1.887
572.50,1.919
575.00,1.945
577.50,1.965
580.00,1.980
582.50,1.988
585.00,1.988
587.50,1.978
590.00,1.959
592.50,1.931
595.00,1.896
597.50,1.859
600.00,1.819
602.50,1.776
605.00,1.735
607.50,1.690
610.00,1.647
612.50,1.604
615.00,1.565
617.50,1.530
620.00,1.498
622.50,1.471
625.00,1.446
627.50,1.426
630.00,1.411
632.50,1.400
635.00,1.394
637.50,1.392
640.00,1.393
642.50,1.398
645.00,1.406
647.50,1.416
650.00,1.426
652.50,1.437
655.00,1.449
657.50,1.461
660.00,1.471
662.50,1.479
665.00,1.480
667.50,1.475
670.00,1.463
672.50,1.448
675.00,1.430
677.50,1.410
680.00,1.389
682.50,1.369
685.00,1.348
687.50,1.328
690.00,1.306
692.50,1.285
695.00,1.262
697.50,1.240
700.00,1.218
702.50,1.197
705.00,1.179
707.50,1.162
710.00,1.148
712.50,1.135
715.00,1.125
717.50,1.116
720.00,1.109
722.50,1.104
725.00,1.099
727.50,1.095
730.00,1.092
732.50,1.090
735.00,1.087
737.50,1.084
740.00,1.081
742.50,1.077
745.00,1.073
747.50,1.069
750.00,1.065
752.50,1.061
755.00,1.056
757.50,1.052
760.00,1.047
762.50,1.043
765.00,1.038
767.50,1.033
770.00,1.028
772.50,1.023
775.00,1.018
777.50,1.014
780.00,1.010
782.50,1.007
785.00,1.004
787.50,1.002
790.00,1.000
792.50,0.999
795.00,0.999
797.50,0.999
800.00,1.000
802.50,1.001
805.00,1.003
807.50,1.006
810.00,1.009
812.50,1.014
815.00,1.019
817.50,1.025
820.00,1.032
822.50,1.040
825.00,1.048
827.50,1.058
830.00,1.067
832.50,1.077
835.00,1.088
837.50,1.098
840.00,1.107
842.50,1.118
845.00,1.128
847.50,1.139
850.00,1.151
852.50,1.163
855.00,1.176
857.50,1.191
860.00,1.208
862.50,1.225
865.00,1.245
867.50,1.266
870.00,1.287
872.50,1.304
875.00,1.318
877.50,1.322
880.00,1.319
882.50,1.313
885.00,1.303
887.50,1.298
890.00,1.300
892.50,1.311
895.00,1.318
897.50,1.320
900.00,1.319
902.50,1.314
905.00,1.326
907.50,1.326
910.00,1.338
912.50,1.334
915.00,1.329
917.50,1.313
920.00,1.300
922.50,1.285
925.00,1.275
927.50,1.266
930.00,1.260
932.50,1.259
935.00,1.278
937.50,1.279
940.00,1.264
942.50,1.236
945.00,1.230
947.50,1.223
950.00,1.214
952.50,1.204
955.00,1.194
957.50,1.190
960.00,1.179
962.50,1.189
965.00,1.189
967.50,1.200
970.00,1.209
972.50,1.223
975.00,1.233
977.50,1.248
980.00,1.257
982.50,1.265
985.00,1.253
987.50,1.263
990.00,1.256
992.50,1.236
995.00,1.223
997.50,1.227
1000.00,1.221
1002.50,1.220
1005.00,1.200
1007.50,1.190
1010.00,1.188
1012.50,1.170
1015.00,1.173
1017.50,1.161
1020.00,1.167
1022.50,1.159
1025.00,1.162
1027.50,1.139
1030.00,1.135
1032.50,1.125
1035.00,1.139
1037.50,1.123
1040.00,1.130
1042.50,1.117
1045.00,1.110
1047.50,1.109
1050.00,1.103
1052.50,1.107
1055.00,1.092
1057.50,1.096
1060.00,1.084
1062.50,1.077
1065.00,1.097
1067.50,1.096
1070.00,1.714
1072.50,1.901
1075.00,1.078
1077.50,1.062
1080.00,1.052
1082.50,1.057
1085.00,1.064
1087.50,1.061
1090.00,1.059
1092.50,1.052
1095.00,1.057
1097.50,1.053
1100.00,1.047