File: UV-Vis Nanotubes_04172017/New 12DF.txt
"New 12DF.spc - RawData"
"Wavelength nm.","Abs."
450.00,0.214
452.50,0.214
455.00,0.215
457.50,0.217
460.00,0.219
462.50,0.221
465.00,0.222
467.50,0.223
470.00,0.222
472.50,0.220
475.00,0.217
477.50,0.213
480.00,0.209
482.50,0.205
485.00,0.201
487.50,0.198
490.00,0.196
492.50,0.194
495.00,0.194
497.50,0.194
500.00,0.195
502.50,0.196
505.00,0.198
507.50,0.199
510.00,0.201
512.50,0.202
515.00,0.202
517.50,0.202
520.00,0.201
522.50,0.201
525.00,0.199
527.50,0.198
530.00,0.196
532.50,0.195
535.00,0.194
537.50,0.193
540.00,0.192
542.50,0.192
545.00,0.193
547.50,0.194
550.00,0.196
552.50,0.198
555.00,0.202
557.50,0.206
560.00,0.211
562.50,0.218
565.00,0.225
567.50,0.231
570.00,0.236
572.50,0.240
575.00,0.243
577.50,0.245
580.00,0.247
582.50,0.248
585.00,0.248
587.50,0.247
590.00,0.244
592.50,0.241
595.00,0.237
597.50,0.232
600.00,0.227
602.50,0.222
605.00,0.216
607.50,0.211
610.00,0.206
612.50,0.201
615.00,0.196
617.50,0.191
620.00,0.187
622.50,0.184
625.00,0.181
627.50,0.179
630.00,0.177
632.50,0.176
635.00,0.175
637.50,0.175
640.00,0.175
642.50,0.176
645.00,0.177
647.50,0.178
650.00,0.180
652.50,0.181
655.00,0.182
657.50,0.184
660.00,0.185
662.50,0.186
665.00,0.186
667.50,0.185
670.00,0.184
672.50,0.182
675.00,0.180
677.50,0.177
680.00,0.175
682.50,0.172
685.00,0.170
687.50,0.167
690.00,0.165
692.50,0.162
695.00,0.159
697.50,0.156
700.00,0.154
702.50,0.151
705.00,0.149
707.50,0.147
710.00,0.145
712.50,0.143
715.00,0.142
717.50,0.141
720.00,0.140
722.50,0.139
725.00,0.139
727.50,0.138
730.00,0.138
732.50,0.138
735.00,0.137
737.50,0.137
740.00,0.136
742.50,0.136
745.00,0.136
747.50,0.135
750.00,0.134
752.50,0.134
755.00,0.133
757.50,0.133
760.00,0.132
762.50,0.132
765.00,0.131
767.50,0.131
770.00,0.130
772.50,0.129
775.00,0.129
777.50,0.128
780.00,0.128
782.50,0.128
785.00,0.127
787.50,0.127
790.00,0.127
792.50,0.127
795.00,0.127
797.50,0.127
800.00,0.127
802.50,0.128
805.00,0.128
807.50,0.129
810.00,0.129
812.50,0.130
815.00,0.130
817.50,0.131
820.00,0.132
822.50,0.133
825.00,0.134
827.50,0.135
830.00,0.136
832.50,0.138
835.00,0.139
837.50,0.140
840.00,0.141
842.50,0.142
845.00,0.143
847.50,0.145
850.00,0.146
852.50,0.148
855.00,0.149
857.50,0.151
860.00,0.153
862.50,0.156
865.00,0.158
867.50,0.161
870.00,0.164
872.50,0.166
875.00,0.168
877.50,0.168
880.00,0.168
882.50,0.167
885.00,0.166
887.50,0.165
890.00,0.166
892.50,0.168
895.00,0.168
897.50,0.168
900.00,0.167
902.50,0.166
905.00,0.170
907.50,0.169
910.00,0.171
912.50,0.171
915.00,0.170
917.50,0.167
920.00,0.166
922.50,0.165
925.00,0.161
927.50,0.160
930.00,0.161
932.50,0.159
935.00,0.161
937.50,0.164
940.00,0.164
942.50,0.160
945.00,0.158
947.50,0.161
950.00,0.161
952.50,0.157
955.00,0.156
957.50,0.158
960.00,0.156
962.50,0.161
965.00,0.159
967.50,0.164
970.00,0.163
972.50,0.169
975.00,0.172
977.50,0.177
980.00,0.179
982.50,0.188
985.00,0.183
987.50,0.177
990.00,0.183
992.50,0.183
995.00,0.182
997.50,0.182
1000.00,0.178
1002.50,0.177
1005.00,0.176
1007.50,0.172
1010.00,0.170
1012.50,0.160
1015.00,0.171
1017.50,0.158
1020.00,0.165
1022.50,0.144
1025.00,0.151
1027.50,0.154
1030.00,0.153
1032.50,0.146
1035.00,0.156
1037.50,0.144
1040.00,0.149
1042.50,0.150
1045.00,0.139
1047.50,0.147
1050.00,0.142
1052.50,0.145
1055.00,0.135
1057.50,0.136
1060.00,0.140
1062.50,0.131
1065.00,0.132
1067.50,0.142
1070.00,0.151
1072.50,0.152
1075.00,0.127
1077.50,0.131
1080.00,0.126
1082.50,0.124
1085.00,0.127
1087.50,0.135
1090.00,0.132
1092.50,0.125
1095.00,0.127
1097.50,0.128
1100.00,0.132