File: UV-Vis Nanotubes_04172017/New 24DF.txt
"New 24DF.spc - RawData"
"Wavelength nm.","Abs."
450.00,0.101
452.50,0.102
455.00,0.102
457.50,0.103
460.00,0.104
462.50,0.105
465.00,0.106
467.50,0.106
470.00,0.106
472.50,0.105
475.00,0.103
477.50,0.101
480.00,0.099
482.50,0.097
485.00,0.095
487.50,0.094
490.00,0.093
492.50,0.092
495.00,0.092
497.50,0.092
500.00,0.092
502.50,0.093
505.00,0.094
507.50,0.095
510.00,0.095
512.50,0.096
515.00,0.096
517.50,0.096
520.00,0.096
522.50,0.095
525.00,0.095
527.50,0.094
530.00,0.093
532.50,0.093
535.00,0.092
537.50,0.091
540.00,0.091
542.50,0.091
545.00,0.091
547.50,0.092
550.00,0.093
552.50,0.094
555.00,0.096
557.50,0.098
560.00,0.101
562.50,0.104
565.00,0.107
567.50,0.111
570.00,0.113
572.50,0.116
575.00,0.117
577.50,0.118
580.00,0.119
582.50,0.119
585.00,0.119
587.50,0.119
590.00,0.118
592.50,0.116
595.00,0.114
597.50,0.112
600.00,0.110
602.50,0.107
605.00,0.104
607.50,0.102
610.00,0.099
612.50,0.096
615.00,0.094
617.50,0.092
620.00,0.090
622.50,0.088
625.00,0.087
627.50,0.086
630.00,0.085
632.50,0.084
635.00,0.084
637.50,0.084
640.00,0.084
642.50,0.085
645.00,0.085
647.50,0.086
650.00,0.087
652.50,0.088
655.00,0.088
657.50,0.089
660.00,0.089
662.50,0.090
665.00,0.090
667.50,0.090
670.00,0.089
672.50,0.089
675.00,0.087
677.50,0.086
680.00,0.085
682.50,0.083
685.00,0.082
687.50,0.081
690.00,0.080
692.50,0.078
695.00,0.077
697.50,0.076
700.00,0.074
702.50,0.073
705.00,0.072
707.50,0.071
710.00,0.070
712.50,0.069
715.00,0.068
717.50,0.068
720.00,0.067
722.50,0.067
725.00,0.067
727.50,0.067
730.00,0.066
732.50,0.066
735.00,0.066
737.50,0.066
740.00,0.066
742.50,0.066
745.00,0.065
747.50,0.065
750.00,0.065
752.50,0.064
755.00,0.064
757.50,0.064
760.00,0.064
762.50,0.064
765.00,0.063
767.50,0.063
770.00,0.063
772.50,0.063
775.00,0.062
777.50,0.062
780.00,0.062
782.50,0.062
785.00,0.062
787.50,0.062
790.00,0.062
792.50,0.062
795.00,0.062
797.50,0.062
800.00,0.062
802.50,0.062
805.00,0.063
807.50,0.063
810.00,0.063
812.50,0.063
815.00,0.064
817.50,0.064
820.00,0.065
822.50,0.065
825.00,0.066
827.50,0.066
830.00,0.067
832.50,0.067
835.00,0.068
837.50,0.068
840.00,0.069
842.50,0.069
845.00,0.070
847.50,0.071
850.00,0.071
852.50,0.072
855.00,0.073
857.50,0.074
860.00,0.075
862.50,0.076
865.00,0.077
867.50,0.078
870.00,0.079
872.50,0.081
875.00,0.082
877.50,0.083
880.00,0.083
882.50,0.083
885.00,0.083
887.50,0.082
890.00,0.082
892.50,0.083
895.00,0.083
897.50,0.082
900.00,0.082
902.50,0.080
905.00,0.083
907.50,0.082
910.00,0.082
912.50,0.082
915.00,0.081
917.50,0.081
920.00,0.080
922.50,0.082
925.00,0.078
927.50,0.078
930.00,0.078
932.50,0.076
935.00,0.076
937.50,0.080
940.00,0.079
942.50,0.075
945.00,0.077
947.50,0.076
950.00,0.076
952.50,0.073
955.00,0.075
957.50,0.076
960.00,0.076
962.50,0.080
965.00,0.076
967.50,0.080
970.00,0.078
972.50,0.082
975.00,0.079
977.50,0.087
980.00,0.086
982.50,0.093
985.00,0.095
987.50,0.087
990.00,0.093
992.50,0.096
995.00,0.089
997.50,0.090
1000.00,0.092
1002.50,0.086
1005.00,0.085
1007.50,0.089
1010.00,0.081
1012.50,0.077
1015.00,0.085
1017.50,0.078
1020.00,0.078
1022.50,0.070
1025.00,0.075
1027.50,0.071
1030.00,0.077
1032.50,0.068
1035.00,0.071
1037.50,0.066
1040.00,0.075
1042.50,0.071
1045.00,0.066
1047.50,0.070
1050.00,0.067
1052.50,0.069
1055.00,0.064
1057.50,0.066
1060.00,0.062
1062.50,0.066
1065.00,0.064
1067.50,0.062
1070.00,0.076
1072.50,0.076
1075.00,0.059
1077.50,0.059
1080.00,0.063
1082.50,0.059
1085.00,0.060
1087.50,0.066
1090.00,0.064
1092.50,0.060
1095.00,0.059
1097.50,0.057
1100.00,0.066