File: UV-Vis Nanotubes_04172017/New 3DF.txt
"New 3DF.spc - RawData"
"Wavelength nm.","Abs."
450.00,0.861
452.50,0.863
455.00,0.868
457.50,0.874
460.00,0.882
462.50,0.889
465.00,0.895
467.50,0.897
470.00,0.894
472.50,0.887
475.00,0.875
477.50,0.860
480.00,0.843
482.50,0.826
485.00,0.811
487.50,0.798
490.00,0.789
492.50,0.783
495.00,0.780
497.50,0.781
500.00,0.784
502.50,0.790
505.00,0.797
507.50,0.804
510.00,0.809
512.50,0.812
515.00,0.814
517.50,0.814
520.00,0.812
522.50,0.809
525.00,0.804
527.50,0.799
530.00,0.793
532.50,0.787
535.00,0.782
537.50,0.779
540.00,0.776
542.50,0.776
545.00,0.777
547.50,0.782
550.00,0.790
552.50,0.800
555.00,0.813
557.50,0.831
560.00,0.852
562.50,0.876
565.00,0.903
567.50,0.928
570.00,0.949
572.50,0.966
575.00,0.978
577.50,0.988
580.00,0.995
582.50,0.999
585.00,0.999
587.50,0.994
590.00,0.985
592.50,0.972
595.00,0.955
597.50,0.936
600.00,0.916
602.50,0.895
605.00,0.874
607.50,0.852
610.00,0.831
612.50,0.810
615.00,0.790
617.50,0.772
620.00,0.756
622.50,0.741
625.00,0.729
627.50,0.719
630.00,0.711
632.50,0.706
635.00,0.702
637.50,0.701
640.00,0.702
642.50,0.705
645.00,0.709
647.50,0.714
650.00,0.719
652.50,0.725
655.00,0.730
657.50,0.736
660.00,0.741
662.50,0.745
665.00,0.746
667.50,0.743
670.00,0.738
672.50,0.730
675.00,0.721
677.50,0.711
680.00,0.700
682.50,0.690
685.00,0.680
687.50,0.670
690.00,0.659
692.50,0.648
695.00,0.637
697.50,0.626
700.00,0.615
702.50,0.605
705.00,0.596
707.50,0.587
710.00,0.580
712.50,0.574
715.00,0.569
717.50,0.564
720.00,0.561
722.50,0.558
725.00,0.556
727.50,0.554
730.00,0.552
732.50,0.551
735.00,0.550
737.50,0.548
740.00,0.547
742.50,0.545
745.00,0.543
747.50,0.541
750.00,0.539
752.50,0.537
755.00,0.535
757.50,0.532
760.00,0.530
762.50,0.528
765.00,0.526
767.50,0.523
770.00,0.521
772.50,0.518
775.00,0.516
777.50,0.514
780.00,0.512
782.50,0.510
785.00,0.509
787.50,0.508
790.00,0.507
792.50,0.507
795.00,0.507
797.50,0.507
800.00,0.507
802.50,0.508
805.00,0.509
807.50,0.510
810.00,0.512
812.50,0.514
815.00,0.517
817.50,0.520
820.00,0.523
822.50,0.527
825.00,0.531
827.50,0.536
830.00,0.541
832.50,0.546
835.00,0.551
837.50,0.555
840.00,0.560
842.50,0.565
845.00,0.570
847.50,0.576
850.00,0.581
852.50,0.587
855.00,0.593
857.50,0.601
860.00,0.609
862.50,0.617
865.00,0.626
867.50,0.637
870.00,0.647
872.50,0.657
875.00,0.665
877.50,0.669
880.00,0.668
882.50,0.665
885.00,0.661
887.50,0.658
890.00,0.659
892.50,0.664
895.00,0.666
897.50,0.667
900.00,0.668
902.50,0.666
905.00,0.672
907.50,0.671
910.00,0.678
912.50,0.676
915.00,0.675
917.50,0.665
920.00,0.660
922.50,0.653
925.00,0.647
927.50,0.641
930.00,0.640
932.50,0.637
935.00,0.646
937.50,0.646
940.00,0.637
942.50,0.628
945.00,0.627
947.50,0.624
950.00,0.623
952.50,0.616
955.00,0.614
957.50,0.611
960.00,0.609
962.50,0.614
965.00,0.612
967.50,0.621
970.00,0.627
972.50,0.635
975.00,0.648
977.50,0.661
980.00,0.661
982.50,0.674
985.00,0.679
987.50,0.661
990.00,0.665
992.50,0.670
995.00,0.653
997.50,0.647
1000.00,0.642
1002.50,0.633
1005.00,0.632
1007.50,0.635
1010.00,0.619
1012.50,0.611
1015.00,0.607
1017.50,0.607
1020.00,0.606
1022.50,0.585
1025.00,0.595
1027.50,0.586
1030.00,0.582
1032.50,0.581
1035.00,0.583
1037.50,0.565
1040.00,0.570
1042.50,0.570
1045.00,0.560
1047.50,0.564
1050.00,0.551
1052.50,0.558
1055.00,0.551
1057.50,0.552
1060.00,0.547
1062.50,0.539
1065.00,0.538
1067.50,0.543
1070.00,0.626
1072.50,0.640
1075.00,0.536
1077.50,0.532
1080.00,0.529
1082.50,0.533
1085.00,0.530
1087.50,0.533
1090.00,0.534
1092.50,0.519
1095.00,0.530
1097.50,0.526
1100.00,0.528