File: UV-Vis Nanotubes_04172017/Original 48DF.txt
"Original 48DF.spc - RawData"
"Wavelength nm.","Abs."
450.00,0.003
452.50,0.003
455.00,0.003
457.50,0.003
460.00,0.003
462.50,0.004
465.00,0.003
467.50,0.004
470.00,0.004
472.50,0.004
475.00,0.003
477.50,0.003
480.00,0.003
482.50,0.003
485.00,0.003
487.50,0.003
490.00,0.003
492.50,0.003
495.00,0.003
497.50,0.003
500.00,0.003
502.50,0.003
505.00,0.003
507.50,0.003
510.00,0.003
512.50,0.003
515.00,0.003
517.50,0.003
520.00,0.003
522.50,0.003
525.00,0.003
527.50,0.003
530.00,0.003
532.50,0.003
535.00,0.003
537.50,0.003
540.00,0.002
542.50,0.002
545.00,0.003
547.50,0.003
550.00,0.003
552.50,0.003
555.00,0.003
557.50,0.003
560.00,0.003
562.50,0.003
565.00,0.004
567.50,0.004
570.00,0.004
572.50,0.004
575.00,0.005
577.50,0.005
580.00,0.005
582.50,0.005
585.00,0.005
587.50,0.005
590.00,0.005
592.50,0.005
595.00,0.005
597.50,0.005
600.00,0.005
602.50,0.004
605.00,0.004
607.50,0.004
610.00,0.004
612.50,0.004
615.00,0.004
617.50,0.004
620.00,0.004
622.50,0.004
625.00,0.003
627.50,0.004
630.00,0.003
632.50,0.004
635.00,0.004
637.50,0.004
640.00,0.004
642.50,0.004
645.00,0.004
647.50,0.004
650.00,0.004
652.50,0.004
655.00,0.005
657.50,0.005
660.00,0.005
662.50,0.005
665.00,0.005
667.50,0.005
670.00,0.005
672.50,0.005
675.00,0.005
677.50,0.005
680.00,0.005
682.50,0.005
685.00,0.005
687.50,0.005
690.00,0.004
692.50,0.004
695.00,0.004
697.50,0.004
700.00,0.004
702.50,0.004
705.00,0.004
707.50,0.004
710.00,0.004
712.50,0.004
715.00,0.004
717.50,0.004
720.00,0.004
722.50,0.004
725.00,0.004
727.50,0.004
730.00,0.004
732.50,0.004
735.00,0.004
737.50,0.004
740.00,0.004
742.50,0.004
745.00,0.004
747.50,0.004
750.00,0.004
752.50,0.004
755.00,0.004
757.50,0.004
760.00,0.004
762.50,0.004
765.00,0.004
767.50,0.004
770.00,0.004
772.50,0.004
775.00,0.004
777.50,0.004
780.00,0.004
782.50,0.004
785.00,0.004
787.50,0.004
790.00,0.004
792.50,0.004
795.00,0.004
797.50,0.004
800.00,0.005
802.50,0.005
805.00,0.005
807.50,0.005
810.00,0.005
812.50,0.005
815.00,0.005
817.50,0.005
820.00,0.005
822.50,0.005
825.00,0.005
827.50,0.005
830.00,0.005
832.50,0.005
835.00,0.005
837.50,0.005
840.00,0.005
842.50,0.005
845.00,0.004
847.50,0.004
850.00,0.005
852.50,0.005
855.00,0.004
857.50,0.005
860.00,0.005
862.50,0.005
865.00,0.005
867.50,0.005
870.00,0.005
872.50,0.006
875.00,0.006
877.50,0.005
880.00,0.006
882.50,0.005
885.00,0.005
887.50,0.005
890.00,0.006
892.50,0.005
895.00,0.006
897.50,0.006
900.00,0.005
902.50,0.004
905.00,0.007
907.50,0.005
910.00,0.005
912.50,0.006
915.00,0.005
917.50,0.005
920.00,0.004
922.50,0.004
925.00,0.004
927.50,0.005
930.00,0.004
932.50,0.002
935.00,0.003
937.50,0.006
940.00,0.006
942.50,0.002
945.00,0.005
947.50,0.006
950.00,0.004
952.50,0.002
955.00,0.003
957.50,0.006
960.00,0.004
962.50,0.006
965.00,0.004
967.50,0.008
970.00,0.005
972.50,0.003
975.00,0.005
977.50,0.008
980.00,0.003
982.50,0.014
985.00,0.012
987.50,0.000
990.00,0.009
992.50,0.010
995.00,0.006
997.50,0.007
1000.00,0.012
1002.50,0.007
1005.00,0.008
1007.50,0.012
1010.00,-0.000
1012.50,0.003
1015.00,0.011
1017.50,0.001
1020.00,0.004
1022.50,-0.005
1025.00,0.000
1027.50,-0.001
1030.00,0.007
1032.50,-0.003
1035.00,0.011
1037.50,0.000
1040.00,0.004
1042.50,0.007
1045.00,-0.002
1047.50,0.012
1050.00,0.004
1052.50,0.009
1055.00,0.000
1057.50,0.001
1060.00,0.005
1062.50,-0.004
1065.00,0.008
1067.50,0.004
1070.00,0.006
1072.50,0.006
1075.00,-0.005
1077.50,-0.004
1080.00,-0.000
1082.50,-0.002
1085.00,0.000
1087.50,0.005
1090.00,0.006
1092.50,-0.002
1095.00,0.002
1097.50,0.002
1100.00,0.005