File: UV-Vis Nanotubes_04172017/Original 1DF.txt
"Original 1DF.spc - RawData-002"
"Wavelength nm.","Abs."
450.00,
452.50,
455.00,
457.50,
460.00,
462.50,
465.00,
467.50,
470.00,
472.50,
475.00,
477.50,
480.00,
482.50,
485.00,
487.50,
490.00,
492.50,
495.00,
497.50,
500.00,
502.50,
505.00,
507.50,
510.00,
512.50,
515.00,
517.50,
520.00,
522.50,
525.00,
527.50,
530.00,
532.50,
535.00,
537.50,
540.00,
542.50,
545.00,
547.50,
550.00,
552.50,
555.00,
557.50,
560.00,
562.50,
565.00,
567.50,
570.00,
572.50,
575.00,
577.50,
580.00,
582.50,
585.00,
587.50,
590.00,
592.50,
595.00,
597.50,
600.00,
602.50,
605.00,
607.50,
610.00,
612.50,
615.00,
617.50,
620.00,
622.50,
625.00,
627.50,
630.00,
632.50,
635.00,
637.50,
640.00,
642.50,
645.00,
647.50,
650.00,
652.50,
655.00,
657.50,
660.00,
662.50,
665.00,
667.50,
670.00,
672.50,
675.00,
677.50,
680.00,
682.50,
685.00,
687.50,
690.00,
692.50,
695.00,
697.50,
700.00,
702.50,
705.00,
707.50,
710.00,
712.50,
715.00,
717.50,
720.00,
722.50,
725.00,
727.50,
730.00,
732.50,
735.00,
737.50,
740.00,
742.50,
745.00,
747.50,
750.00,
752.50,
755.00,
757.50,
760.00,
762.50,
765.00,
767.50,
770.00,
772.50,
775.00,
777.50,
780.00,
782.50,
785.00,
787.50,
790.00,
792.50,
795.00,
797.50,
800.00,
802.50,
805.00,
807.50,
810.00,
812.50,
815.00,
817.50,
820.00,
822.50,
825.00,
827.50,
830.00,
832.50,
835.00,
837.50,
840.00,
842.50,
845.00,
847.50,
850.00,
852.50,
855.00,
857.50,
860.00,
862.50,
865.00,
867.50,
870.00,
872.50,
875.00,
877.50,
880.00,
882.50,
885.00,
887.50,
890.00,
892.50,
895.00,
897.50,
900.00,
902.50,
905.00,
907.50,
910.00,
912.50,
915.00,
917.50,
920.00,
922.50,
925.00,
927.50,
930.00,
932.50,
935.00,
937.50,
940.00,
942.50,
945.00,
947.50,
950.00,
952.50,
955.00,
957.50,
960.00,
962.50,
965.00,
967.50,
970.00,
972.50,
975.00,
977.50,
980.00,
982.50,
985.00,
987.50,
990.00,
992.50,
995.00,
997.50,
1000.00,
1002.50,
1005.00,
1007.50,
1010.00,
1012.50,
1015.00,
1017.50,
1020.00,
1022.50,
1025.00,
1027.50,
1030.00,
1032.50,
1035.00,
1037.50,
1040.00,
1042.50,
1045.00,
1047.50,
1050.00,
1052.50,
1055.00,
1057.50,
1060.00,
1062.50,
1065.00,
1067.50,
1070.00,
1072.50,
1075.00,
1077.50,
1080.00,
1082.50,
1085.00,0.249
1087.50,0.256
1090.00,0.255
1092.50,0.252
1095.00,0.254
1097.50,0.251
1100.00,0.253