File: UV-Vis Nanotubes_04172017/Original 12DF.txt
"Original 12DF.spc - RawData"
"Wavelength nm.","Abs."
450.00,0.030
452.50,0.030
455.00,0.030
457.50,0.030
460.00,0.031
462.50,0.031
465.00,0.031
467.50,0.031
470.00,0.031
472.50,0.031
475.00,0.031
477.50,0.030
480.00,0.029
482.50,0.029
485.00,0.028
487.50,0.028
490.00,0.027
492.50,0.027
495.00,0.027
497.50,0.027
500.00,0.027
502.50,0.027
505.00,0.027
507.50,0.028
510.00,0.028
512.50,0.028
515.00,0.028
517.50,0.028
520.00,0.028
522.50,0.028
525.00,0.028
527.50,0.028
530.00,0.028
532.50,0.028
535.00,0.027
537.50,0.027
540.00,0.027
542.50,0.027
545.00,0.027
547.50,0.027
550.00,0.028
552.50,0.028
555.00,0.028
557.50,0.029
560.00,0.030
562.50,0.031
565.00,0.032
567.50,0.033
570.00,0.035
572.50,0.035
575.00,0.036
577.50,0.037
580.00,0.037
582.50,0.037
585.00,0.037
587.50,0.037
590.00,0.037
592.50,0.036
595.00,0.036
597.50,0.035
600.00,0.034
602.50,0.034
605.00,0.033
607.50,0.032
610.00,0.031
612.50,0.030
615.00,0.029
617.50,0.029
620.00,0.028
622.50,0.027
625.00,0.027
627.50,0.027
630.00,0.026
632.50,0.026
635.00,0.026
637.50,0.026
640.00,0.027
642.50,0.027
645.00,0.027
647.50,0.028
650.00,0.028
652.50,0.028
655.00,0.029
657.50,0.029
660.00,0.029
662.50,0.029
665.00,0.029
667.50,0.029
670.00,0.029
672.50,0.029
675.00,0.029
677.50,0.029
680.00,0.028
682.50,0.028
685.00,0.027
687.50,0.027
690.00,0.027
692.50,0.026
695.00,0.026
697.50,0.025
700.00,0.025
702.50,0.025
705.00,0.025
707.50,0.024
710.00,0.024
712.50,0.024
715.00,0.024
717.50,0.024
720.00,0.023
722.50,0.023
725.00,0.023
727.50,0.023
730.00,0.023
732.50,0.023
735.00,0.023
737.50,0.023
740.00,0.023
742.50,0.023
745.00,0.023
747.50,0.023
750.00,0.023
752.50,0.023
755.00,0.023
757.50,0.023
760.00,0.023
762.50,0.023
765.00,0.023
767.50,0.023
770.00,0.023
772.50,0.023
775.00,0.023
777.50,0.023
780.00,0.023
782.50,0.023
785.00,0.023
787.50,0.023
790.00,0.023
792.50,0.023
795.00,0.023
797.50,0.023
800.00,0.024
802.50,0.024
805.00,0.024
807.50,0.024
810.00,0.024
812.50,0.024
815.00,0.024
817.50,0.025
820.00,0.025
822.50,0.025
825.00,0.025
827.50,0.025
830.00,0.025
832.50,0.025
835.00,0.025
837.50,0.025
840.00,0.026
842.50,0.026
845.00,0.026
847.50,0.026
850.00,0.026
852.50,0.026
855.00,0.026
857.50,0.027
860.00,0.027
862.50,0.027
865.00,0.028
867.50,0.028
870.00,0.028
872.50,0.029
875.00,0.029
877.50,0.029
880.00,0.029
882.50,0.029
885.00,0.028
887.50,0.028
890.00,0.028
892.50,0.029
895.00,0.029
897.50,0.029
900.00,0.028
902.50,0.026
905.00,0.030
907.50,0.028
910.00,0.028
912.50,0.029
915.00,0.027
917.50,0.026
920.00,0.025
922.50,0.026
925.00,0.024
927.50,0.024
930.00,0.026
932.50,0.024
935.00,0.025
937.50,0.026
940.00,0.026
942.50,0.024
945.00,0.024
947.50,0.023
950.00,0.025
952.50,0.021
955.00,0.023
957.50,0.024
960.00,0.021
962.50,0.029
965.00,0.022
967.50,0.026
970.00,0.024
972.50,0.026
975.00,0.026
977.50,0.029
980.00,0.025
982.50,0.034
985.00,0.033
987.50,0.026
990.00,0.028
992.50,0.035
995.00,0.029
997.50,0.032
1000.00,0.030
1002.50,0.033
1005.00,0.027
1007.50,0.032
1010.00,0.027
1012.50,0.025
1015.00,0.028
1017.50,0.026
1020.00,0.029
1022.50,0.017
1025.00,0.017
1027.50,0.024
1030.00,0.022
1032.50,0.018
1035.00,0.031
1037.50,0.018
1040.00,0.025
1042.50,0.022
1045.00,0.017
1047.50,0.024
1050.00,0.026
1052.50,0.023
1055.00,0.019
1057.50,0.021
1060.00,0.018
1062.50,0.017
1065.00,0.025
1067.50,0.019
1070.00,0.025
1072.50,0.028
1075.00,0.016
1077.50,0.017
1080.00,0.016
1082.50,0.014
1085.00,0.015
1087.50,0.022
1090.00,0.025
1092.50,0.015
1095.00,0.020
1097.50,0.017
1100.00,0.019