File: UV-Vis Nanotubes_04172017/Original 3DF.txt
"Original 3DF.spc - RawData"
"Wavelength nm.","Abs."
450.00,0.124
452.50,0.125
455.00,0.126
457.50,0.127
460.00,0.128
462.50,0.129
465.00,0.130
467.50,0.130
470.00,0.130
472.50,0.129
475.00,0.127
477.50,0.125
480.00,0.122
482.50,0.120
485.00,0.117
487.50,0.115
490.00,0.114
492.50,0.113
495.00,0.113
497.50,0.113
500.00,0.113
502.50,0.114
505.00,0.115
507.50,0.116
510.00,0.117
512.50,0.118
515.00,0.118
517.50,0.119
520.00,0.118
522.50,0.118
525.00,0.117
527.50,0.116
530.00,0.115
532.50,0.114
535.00,0.114
537.50,0.113
540.00,0.113
542.50,0.112
545.00,0.113
547.50,0.113
550.00,0.114
552.50,0.116
555.00,0.118
557.50,0.120
560.00,0.123
562.50,0.127
565.00,0.131
567.50,0.136
570.00,0.140
572.50,0.143
575.00,0.145
577.50,0.147
580.00,0.148
582.50,0.149
585.00,0.148
587.50,0.148
590.00,0.146
592.50,0.145
595.00,0.143
597.50,0.140
600.00,0.137
602.50,0.134
605.00,0.130
607.50,0.127
610.00,0.123
612.50,0.120
615.00,0.117
617.50,0.114
620.00,0.111
622.50,0.109
625.00,0.107
627.50,0.106
630.00,0.104
632.50,0.104
635.00,0.103
637.50,0.103
640.00,0.104
642.50,0.105
645.00,0.106
647.50,0.107
650.00,0.108
652.50,0.109
655.00,0.110
657.50,0.110
660.00,0.111
662.50,0.111
665.00,0.111
667.50,0.111
670.00,0.111
672.50,0.110
675.00,0.109
677.50,0.107
680.00,0.106
682.50,0.104
685.00,0.103
687.50,0.101
690.00,0.099
692.50,0.098
695.00,0.096
697.50,0.094
700.00,0.093
702.50,0.091
705.00,0.090
707.50,0.089
710.00,0.088
712.50,0.087
715.00,0.086
717.50,0.086
720.00,0.085
722.50,0.085
725.00,0.084
727.50,0.084
730.00,0.084
732.50,0.083
735.00,0.083
737.50,0.083
740.00,0.083
742.50,0.082
745.00,0.082
747.50,0.082
750.00,0.081
752.50,0.081
755.00,0.081
757.50,0.081
760.00,0.080
762.50,0.080
765.00,0.080
767.50,0.079
770.00,0.079
772.50,0.078
775.00,0.078
777.50,0.078
780.00,0.078
782.50,0.078
785.00,0.077
787.50,0.077
790.00,0.077
792.50,0.077
795.00,0.077
797.50,0.077
800.00,0.077
802.50,0.078
805.00,0.078
807.50,0.078
810.00,0.078
812.50,0.079
815.00,0.079
817.50,0.080
820.00,0.080
822.50,0.081
825.00,0.081
827.50,0.082
830.00,0.083
832.50,0.083
835.00,0.084
837.50,0.085
840.00,0.086
842.50,0.086
845.00,0.087
847.50,0.088
850.00,0.089
852.50,0.090
855.00,0.090
857.50,0.092
860.00,0.093
862.50,0.094
865.00,0.095
867.50,0.096
870.00,0.097
872.50,0.098
875.00,0.099
877.50,0.100
880.00,0.101
882.50,0.100
885.00,0.100
887.50,0.100
890.00,0.101
892.50,0.102
895.00,0.102
897.50,0.102
900.00,0.102
902.50,0.101
905.00,0.104
907.50,0.101
910.00,0.101
912.50,0.102
915.00,0.102
917.50,0.101
920.00,0.100
922.50,0.099
925.00,0.098
927.50,0.097
930.00,0.098
932.50,0.096
935.00,0.096
937.50,0.099
940.00,0.098
942.50,0.096
945.00,0.095
947.50,0.096
950.00,0.094
952.50,0.093
955.00,0.091
957.50,0.095
960.00,0.090
962.50,0.097
965.00,0.093
967.50,0.099
970.00,0.096
972.50,0.096
975.00,0.106
977.50,0.109
980.00,0.107
982.50,0.115
985.00,0.118
987.50,0.109
990.00,0.111
992.50,0.115
995.00,0.112
997.50,0.114
1000.00,0.108
1002.50,0.113
1005.00,0.112
1007.50,0.108
1010.00,0.106
1012.50,0.103
1015.00,0.109
1017.50,0.096
1020.00,0.104
1022.50,0.086
1025.00,0.089
1027.50,0.093
1030.00,0.096
1032.50,0.088
1035.00,0.097
1037.50,0.089
1040.00,0.094
1042.50,0.094
1045.00,0.084
1047.50,0.090
1050.00,0.089
1052.50,0.088
1055.00,0.081
1057.50,0.081
1060.00,0.082
1062.50,0.081
1065.00,0.085
1067.50,0.084
1070.00,0.093
1072.50,0.092
1075.00,0.075
1077.50,0.077
1080.00,0.077
1082.50,0.077
1085.00,0.073
1087.50,0.081
1090.00,0.085
1092.50,0.074
1095.00,0.077
1097.50,0.073
1100.00,0.078