File: UV-Vis Nanotubes_04172017/Original 6DF.txt
"Original 6DF.spc - RawData"
"Wavelength nm.","Abs."
450.00,0.066
452.50,0.066
455.00,0.066
457.50,0.067
460.00,0.068
462.50,0.068
465.00,0.069
467.50,0.069
470.00,0.069
472.50,0.068
475.00,0.067
477.50,0.066
480.00,0.065
482.50,0.063
485.00,0.062
487.50,0.061
490.00,0.060
492.50,0.059
495.00,0.059
497.50,0.059
500.00,0.059
502.50,0.060
505.00,0.060
507.50,0.061
510.00,0.061
512.50,0.062
515.00,0.062
517.50,0.062
520.00,0.062
522.50,0.062
525.00,0.061
527.50,0.061
530.00,0.060
532.50,0.060
535.00,0.059
537.50,0.059
540.00,0.059
542.50,0.059
545.00,0.059
547.50,0.059
550.00,0.060
552.50,0.060
555.00,0.061
557.50,0.063
560.00,0.064
562.50,0.067
565.00,0.069
567.50,0.071
570.00,0.073
572.50,0.075
575.00,0.076
577.50,0.077
580.00,0.078
582.50,0.078
585.00,0.078
587.50,0.078
590.00,0.077
592.50,0.076
595.00,0.075
597.50,0.073
600.00,0.072
602.50,0.070
605.00,0.068
607.50,0.066
610.00,0.064
612.50,0.062
615.00,0.061
617.50,0.059
620.00,0.058
622.50,0.057
625.00,0.056
627.50,0.055
630.00,0.054
632.50,0.054
635.00,0.054
637.50,0.054
640.00,0.054
642.50,0.054
645.00,0.055
647.50,0.056
650.00,0.057
652.50,0.057
655.00,0.058
657.50,0.058
660.00,0.058
662.50,0.059
665.00,0.059
667.50,0.059
670.00,0.058
672.50,0.058
675.00,0.057
677.50,0.057
680.00,0.056
682.50,0.055
685.00,0.054
687.50,0.054
690.00,0.053
692.50,0.052
695.00,0.051
697.50,0.050
700.00,0.049
702.50,0.048
705.00,0.048
707.50,0.047
710.00,0.047
712.50,0.046
715.00,0.046
717.50,0.046
720.00,0.045
722.50,0.045
725.00,0.045
727.50,0.045
730.00,0.045
732.50,0.045
735.00,0.045
737.50,0.045
740.00,0.044
742.50,0.045
745.00,0.044
747.50,0.044
750.00,0.044
752.50,0.044
755.00,0.044
757.50,0.044
760.00,0.044
762.50,0.044
765.00,0.044
767.50,0.043
770.00,0.043
772.50,0.043
775.00,0.043
777.50,0.043
780.00,0.043
782.50,0.043
785.00,0.043
787.50,0.042
790.00,0.042
792.50,0.042
795.00,0.043
797.50,0.043
800.00,0.043
802.50,0.043
805.00,0.043
807.50,0.043
810.00,0.043
812.50,0.044
815.00,0.044
817.50,0.044
820.00,0.044
822.50,0.045
825.00,0.045
827.50,0.045
830.00,0.046
832.50,0.046
835.00,0.047
837.50,0.047
840.00,0.047
842.50,0.048
845.00,0.048
847.50,0.048
850.00,0.049
852.50,0.049
855.00,0.049
857.50,0.050
860.00,0.050
862.50,0.051
865.00,0.052
867.50,0.052
870.00,0.053
872.50,0.053
875.00,0.054
877.50,0.054
880.00,0.055
882.50,0.054
885.00,0.054
887.50,0.055
890.00,0.055
892.50,0.055
895.00,0.056
897.50,0.055
900.00,0.055
902.50,0.054
905.00,0.056
907.50,0.053
910.00,0.055
912.50,0.055
915.00,0.054
917.50,0.053
920.00,0.052
922.50,0.053
925.00,0.050
927.50,0.051
930.00,0.051
932.50,0.050
935.00,0.051
937.50,0.052
940.00,0.051
942.50,0.051
945.00,0.048
947.50,0.049
950.00,0.051
952.50,0.047
955.00,0.048
957.50,0.050
960.00,0.048
962.50,0.052
965.00,0.049
967.50,0.052
970.00,0.049
972.50,0.053
975.00,0.051
977.50,0.057
980.00,0.056
982.50,0.064
985.00,0.067
987.50,0.057
990.00,0.064
992.50,0.065
995.00,0.055
997.50,0.064
1000.00,0.060
1002.50,0.060
1005.00,0.056
1007.50,0.056
1010.00,0.058
1012.50,0.051
1015.00,0.058
1017.50,0.050
1020.00,0.057
1022.50,0.044
1025.00,0.050
1027.50,0.050
1030.00,0.047
1032.50,0.046
1035.00,0.053
1037.50,0.040
1040.00,0.049
1042.50,0.045
1045.00,0.042
1047.50,0.048
1050.00,0.049
1052.50,0.049
1055.00,0.041
1057.50,0.040
1060.00,0.041
1062.50,0.040
1065.00,0.043
1067.50,0.050
1070.00,0.053
1072.50,0.050
1075.00,0.035
1077.50,0.038
1080.00,0.035
1082.50,0.041
1085.00,0.040
1087.50,0.047
1090.00,0.046
1092.50,0.039
1095.00,0.043
1097.50,0.042
1100.00,0.045