File: UV-Vis Nanotubes_04172017/Original 1.5DF.txt
"Original 1.5DF.spc - RawData"
"Wavelength nm.","Abs."
450.00,0.256
452.50,0.257
455.00,0.258
457.50,0.261
460.00,0.263
462.50,0.265
465.00,0.267
467.50,0.268
470.00,0.267
472.50,0.265
475.00,0.261
477.50,0.256
480.00,0.251
482.50,0.246
485.00,0.241
487.50,0.237
490.00,0.234
492.50,0.232
495.00,0.231
497.50,0.231
500.00,0.232
502.50,0.234
505.00,0.236
507.50,0.238
510.00,0.240
512.50,0.242
515.00,0.243
517.50,0.243
520.00,0.243
522.50,0.242
525.00,0.240
527.50,0.239
530.00,0.237
532.50,0.235
535.00,0.233
537.50,0.232
540.00,0.231
542.50,0.230
545.00,0.231
547.50,0.232
550.00,0.234
552.50,0.237
555.00,0.241
557.50,0.247
560.00,0.253
562.50,0.261
565.00,0.270
567.50,0.279
570.00,0.287
572.50,0.293
575.00,0.298
577.50,0.302
580.00,0.304
582.50,0.304
585.00,0.304
587.50,0.303
590.00,0.300
592.50,0.297
595.00,0.292
597.50,0.287
600.00,0.281
602.50,0.274
605.00,0.267
607.50,0.260
610.00,0.253
612.50,0.245
615.00,0.239
617.50,0.233
620.00,0.227
622.50,0.223
625.00,0.219
627.50,0.215
630.00,0.213
632.50,0.211
635.00,0.211
637.50,0.211
640.00,0.212
642.50,0.213
645.00,0.215
647.50,0.218
650.00,0.220
652.50,0.222
655.00,0.224
657.50,0.225
660.00,0.226
662.50,0.227
665.00,0.227
667.50,0.227
670.00,0.226
672.50,0.224
675.00,0.222
677.50,0.219
680.00,0.216
682.50,0.212
685.00,0.209
687.50,0.206
690.00,0.202
692.50,0.199
695.00,0.195
697.50,0.192
700.00,0.189
702.50,0.186
705.00,0.183
707.50,0.180
710.00,0.178
712.50,0.176
715.00,0.175
717.50,0.174
720.00,0.172
722.50,0.171
725.00,0.171
727.50,0.170
730.00,0.169
732.50,0.169
735.00,0.168
737.50,0.168
740.00,0.167
742.50,0.167
745.00,0.166
747.50,0.165
750.00,0.165
752.50,0.164
755.00,0.164
757.50,0.163
760.00,0.162
762.50,0.162
765.00,0.161
767.50,0.160
770.00,0.160
772.50,0.159
775.00,0.158
777.50,0.158
780.00,0.157
782.50,0.157
785.00,0.156
787.50,0.156
790.00,0.156
792.50,0.156
795.00,0.156
797.50,0.156
800.00,0.156
802.50,0.157
805.00,0.157
807.50,0.158
810.00,0.158
812.50,0.159
815.00,0.160
817.50,0.161
820.00,0.162
822.50,0.163
825.00,0.165
827.50,0.166
830.00,0.168
832.50,0.169
835.00,0.171
837.50,0.173
840.00,0.175
842.50,0.176
845.00,0.178
847.50,0.180
850.00,0.182
852.50,0.184
855.00,0.186
857.50,0.188
860.00,0.190
862.50,0.192
865.00,0.195
867.50,0.197
870.00,0.199
872.50,0.202
875.00,0.204
877.50,0.206
880.00,0.206
882.50,0.207
885.00,0.207
887.50,0.206
890.00,0.207
892.50,0.210
895.00,0.211
897.50,0.210
900.00,0.210
902.50,0.209
905.00,0.211
907.50,0.209
910.00,0.210
912.50,0.209
915.00,0.208
917.50,0.207
920.00,0.206
922.50,0.205
925.00,0.201
927.50,0.200
930.00,0.200
932.50,0.197
935.00,0.201
937.50,0.202
940.00,0.198
942.50,0.193
945.00,0.192
947.50,0.193
950.00,0.189
952.50,0.185
955.00,0.187
957.50,0.184
960.00,0.183
962.50,0.193
965.00,0.189
967.50,0.195
970.00,0.195
972.50,0.199
975.00,0.209
977.50,0.212
980.00,0.214
982.50,0.225
985.00,0.228
987.50,0.216
990.00,0.228
992.50,0.225
995.00,0.224
997.50,0.221
1000.00,0.221
1002.50,0.222
1005.00,0.218
1007.50,0.215
1010.00,0.210
1012.50,0.205
1015.00,0.212
1017.50,0.203
1020.00,0.202
1022.50,0.192
1025.00,0.192
1027.50,0.185
1030.00,0.190
1032.50,0.180
1035.00,0.186
1037.50,0.176
1040.00,0.181
1042.50,0.177
1045.00,0.168
1047.50,0.181
1050.00,0.177
1052.50,0.175
1055.00,0.161
1057.50,0.166
1060.00,0.167
1062.50,0.163
1065.00,0.160
1067.50,0.164
1070.00,0.183
1072.50,0.191
1075.00,0.152
1077.50,0.159
1080.00,0.157
1082.50,0.155
1085.00,0.156
1087.50,0.162
1090.00,0.162
1092.50,0.158
1095.00,0.159
1097.50,0.161
1100.00,0.158